Nb
as received
Sample dimentions in mm: 0.7000 x 0.000 x 14.18
Photocell sensitivity 0.056 V/mm, Optic arm 328 mm
User: Iva
C 23 450 2.0 290 999 1.000  20 1.0E-1
24.11.2013, 06:51

T[K]   F[Hz]  Theta[rad]   Modulus  MaxStrain Center[mm] Time[s] TOven[K]
436.22 1.000576 2.015706E-2 0.652888  3.474E-5 8.27544 26 449.90
436.22 1.000576 2.026663E-2 0.652985  3.466E-5 8.27544 56 449.65
436.22 1.000576 2.054908E-2 0.653042  3.468E-5 8.27496 86 449.15
436.20 1.000576 2.060329E-2 0.652831  3.472E-5 8.27554 116 448.50
436.17 1.000576 2.047509E-2 0.652829  3.470E-5 8.27425 146 447.80
436.13 1.000576 2.043811E-2 0.653073  3.457E-5 8.27481 175 446.95
436.04 1.000576 2.025496E-2 0.653368  3.471E-5 8.27516 205 446.05
435.94 1.000576 2.087951E-2 0.653135  3.469E-5 8.27401 235 445.10
435.82 1.000576 2.048973E-2 0.653140  3.474E-5 8.27537 265 444.15
435.67 1.000576 2.049046E-2 0.653127  3.468E-5 8.27445 295 443.15
435.49 1.000576 2.053615E-2 0.653168  3.461E-5 8.27406 324 442.25
435.28 1.000576 2.033667E-2 0.653413  3.472E-5 8.27376 354 441.25
435.04 1.000576 2.075507E-2 0.653731  3.476E-5 8.27529 384 440.25
434.78 1.000576 2.080661E-2 0.653858  3.467E-5 8.27474 414 439.25
434.49 1.000576 2.072215E-2 0.654036  3.462E-5 8.27526 444 438.25
434.18 1.000576 1.988416E-2 0.654574  3.452E-5 8.27495 473 437.20
433.85 1.000576 2.040341E-2 0.654242  3.465E-5 8.27532 503 436.10
433.50 1.000576 2.013714E-2 0.654806  3.472E-5 8.27576 533 435.05
433.12 1.000576 2.016253E-2 0.655032  3.459E-5 8.27582 563 434.00
432.72 1.000576 2.028516E-2 0.655229  3.460E-5 8.27503 593 432.95
432.29 1.000576 2.007835E-2 0.655564  3.453E-5 8.27559 622 431.85
431.85 1.000576 2.045785E-2 0.655880  3.464E-5 8.27586 652 430.55
431.39 1.000576 2.001950E-2 0.656231  3.447E-5 8.27477 682 429.70
430.92 1.000576 2.034911E-2 0.656269  3.456E-5 8.27675 712 428.80
430.42 1.000576 1.989909E-2 0.656737  3.445E-5 8.27567 742 427.95
429.92 1.000576 1.981897E-2 0.657110  3.461E-5 8.27474 771 426.95
429.40 1.000576 1.970076E-2 0.657390  3.443E-5 8.27632 801 426.00
428.87 1.000576 2.019076E-2 0.657869  3.442E-5 8.27622 831 425.05
428.32 1.000576 1.991009E-2 0.658290  3.443E-5 8.27562 861 424.15
427.76 1.000576 1.962850E-2 0.658593  3.445E-5 8.27473 891 423.15
427.19 1.000576 1.918753E-2 0.659111  3.434E-5 8.27559 920 422.25
426.61 1.000576 1.917578E-2 0.659176  3.438E-5 8.27563 950 421.20
426.02 1.000576 1.879701E-2 0.659715  3.438E-5 8.27507 980 420.15
425.41 1.000576 1.856891E-2 0.659988  3.434E-5 8.27563 1010 419.15
424.80 1.000576 1.870579E-2 0.660578  3.433E-5 8.27552 1040 418.15
424.17 1.000576 1.842341E-2 0.660910  3.445E-5 8.27510 1069 417.10
423.54 1.000576 1.820220E-2 0.661222  3.421E-5 8.27388 1099 416.10
422.91 1.000576 1.782571E-2 0.661551  3.430E-5 8.27503 1129 415.15
422.25 1.000576 1.758505E-2 0.662033  3.421E-5 8.27570 1159 414.10
421.59 1.000576 1.765459E-2 0.662507  3.424E-5 8.27355 1189 413.10
420.92 1.000576 1.733665E-2 0.662930  3.416E-5 8.27488 1218 412.10
420.24 1.000576 1.733368E-2 0.663209  3.423E-5 8.27477 1248 411.10
419.56 1.000576 1.662671E-2 0.663656  3.411E-5 8.27483 1278 410.05
418.86 1.000576 1.652806E-2 0.664116  3.422E-5 8.27452 1308 409.00
418.18 1.000576 1.641876E-2 0.664281  3.405E-5 8.27466 1338 408.05
417.48 1.000576 1.584531E-2 0.664799  3.410E-5 8.27514 1367 406.95
416.78 1.000576 1.585476E-2 0.665213  3.412E-5 8.27388 1397 405.95
416.07 1.000576 1.536543E-2 0.665658  3.404E-5 8.27420 1427 404.95
415.36 1.000576 1.480022E-2 0.665909  3.409E-5 8.27413 1457 403.95
414.63 1.000576 1.441543E-2 0.666357  3.407E-5 8.27405 1487 402.95
413.91 1.000576 1.424093E-2 0.666668  3.399E-5 8.27281 1516 402.05
413.19 1.000576 1.353923E-2 0.666944  3.400E-5 8.27320 1546 401.05
412.46 1.000576 1.361596E-2 0.667422  3.407E-5 8.27324 1576 400.05
411.72 1.000576 1.344582E-2 0.667475  3.380E-5 8.27323 1606 399.15
410.99 1.000576 1.299965E-2 0.668069  3.402E-5 8.27275 1636 398.15
410.26 1.000576 1.254844E-2 0.668462  3.394E-5 8.27241 1665 397.25
409.53 1.000576 1.246374E-2 0.668947  3.387E-5 8.27162 1695 396.25
408.79 1.000576 1.252968E-2 0.668927  3.389E-5 8.27222 1725 395.25
408.05 1.000576 1.208872E-2 0.669173  3.386E-5 8.27032 1755 394.35
407.31 1.000576 1.166494E-2 0.669688  3.383E-5 8.27037 1785 393.35
406.56 1.000576 1.170050E-2 0.669947  3.382E-5 8.26981 1814 392.35
405.82 1.000576 1.062520E-2 0.670107  3.381E-5 8.26973 1844 391.35
405.07 1.000576 1.071787E-2 0.670783  3.376E-5 8.26935 1874 390.35
404.33 1.000576 1.080209E-2 0.670801  3.389E-5 8.26788 1904 389.35
403.57 1.000576 1.027068E-2 0.671055  3.379E-5 8.26884 1934 388.35
402.83 1.000576 9.994034E-3 0.671549  3.373E-5 8.26797 1963 387.45
402.07 1.000576 9.501772E-3 0.671812  3.365E-5 8.26779 1993 386.45
401.33 1.000576 9.620944E-3 0.671985  3.371E-5 8.26711 2023 385.45
400.58 1.000576 9.339718E-3 0.672190  3.364E-5 8.26672 2053 384.45
399.82 1.000576 9.003835E-3 0.672659  3.363E-5 8.26643 2083 383.45
399.07 1.000576 9.048015E-3 0.672722  3.361E-5 8.26567 2112 382.45
398.32 1.000576 8.409363E-3 0.672879  3.361E-5 8.26409 2142 381.45
397.56 1.000576 8.165298E-3 0.673182  3.368E-5 8.26470 2172 380.45
396.81 1.000576 8.179541E-3 0.673132  3.374E-5 8.26315 2202 379.45
396.06 1.000576 7.806952E-3 0.673684  3.369E-5 8.26306 2232 378.55
395.31 1.000576 8.156380E-3 0.674075  3.368E-5 8.26342 2261 377.60
394.56 1.000576 7.710785E-3 0.674157  3.359E-5 8.26263 2291 376.70
393.81 1.000576 7.372949E-3 0.674376  3.367E-5 8.26151 2321 375.85
393.07 1.000576 7.395346E-3 0.674618  3.367E-5 8.26109 2351 375.00
392.32 1.000576 7.272477E-3 0.674830  3.351E-5 8.26070 2381 374.15
391.56 1.000576 7.154519E-3 0.674838  3.358E-5 8.25894 2410 373.30
390.81 1.000576 6.259549E-3 0.675488  3.350E-5 8.25913 2440 372.50
390.07 1.000576 6.641946E-3 0.675299  3.353E-5 8.25857 2470 371.75
389.33 1.000576 6.894360E-3 0.675735  3.355E-5 8.25830 2500 371.00
388.59 1.000576 6.679170E-3 0.675733  3.350E-5 8.25604 2530 370.25
387.85 1.000576 6.408990E-3 0.675858  3.352E-5 8.25676 2559 369.55
387.12 1.000576 6.344477E-3 0.676031  3.355E-5 8.25553 2589 368.85
386.39 1.000576 6.351554E-3 0.676171  3.344E-5 8.25406 2619 368.15
385.68 1.000576 6.187979E-3 0.676521  3.351E-5 8.25434 2649 367.45
384.97 1.000576 5.770249E-3 0.676631  3.345E-5 8.25312 2679 366.75
384.27 1.000576 5.736221E-3 0.676989  3.344E-5 8.25270 2708 366.05
383.56 1.000576 5.759782E-3 0.677354  3.348E-5 8.25125 2738 365.35
382.86 1.000576 5.404461E-3 0.677049  3.344E-5 8.25159 2768 364.65
382.16 1.000576 5.611676E-3 0.677196  3.339E-5 8.25106 2798 363.95
381.47 1.000576 5.604262E-3 0.677607  3.358E-5 8.25027 2828 363.25
380.79 1.000576 5.368029E-3 0.677529  3.350E-5 8.24949 2857 362.60
380.10 1.000576 5.509117E-3 0.677746  3.343E-5 8.24923 2887 362.00
379.42 1.000576 5.167455E-3 0.678303  3.356E-5 8.24796 2917 361.40
378.76 1.000576 5.832279E-3 0.678537  3.341E-5 8.24673 2947 360.75
378.08 1.000576 5.490092E-3 0.678161  3.337E-5 8.24658 2977 360.10
377.41 1.000576 5.250096E-3 0.678467  3.343E-5 8.24552 3006 359.60
376.76 1.000576 4.903695E-3 0.678492  3.334E-5 8.24553 3036 358.95
376.11 1.000576 4.827803E-3 0.678792  3.335E-5 8.24361 3066 358.40
375.48 1.000576 5.119387E-3 0.678859  3.348E-5 8.24363 3096 357.80
374.85 1.000576 4.889341E-3 0.678752  3.335E-5 8.24251 3126 357.20
374.20 1.000576 4.842938E-3 0.679201  3.343E-5 8.24178 3155 356.70
373.56 1.000576 4.668658E-3 0.679103  3.337E-5 8.24063 3185 356.10
372.95 1.000576 4.835273E-3 0.679244  3.332E-5 8.24053 3215 355.65
372.38 1.000576 5.222526E-3 0.679448  3.334E-5 8.24037 3245 355.15
371.76 1.000576 4.758714E-3 0.679506  3.344E-5 8.23891 3275 354.65
371.16 1.000576 4.808842E-3 0.679130  3.339E-5 8.23771 3304 354.20
370.56 1.000576 4.758212E-3 0.679853  3.334E-5 8.23664 3334 353.75
369.97 1.000576 4.650922E-3 0.679924  3.328E-5 8.23679 3364 353.25
369.38 1.000576 4.417064E-3 0.679999  3.328E-5 8.23651 3394 352.75
368.79 1.000576 4.866115E-3 0.680274  3.331E-5 8.23553 3424 352.30
368.22 1.000576 4.374082E-3 0.680098  3.320E-5 8.23404 3453 351.85
367.65 1.000576 4.477224E-3 0.680283  3.331E-5 8.23347 3483 351.35
367.09 1.000576 4.311183E-3 0.680579  3.337E-5 8.23375 3513 350.85
366.54 1.000576 4.468656E-3 0.680644  3.317E-5 8.23345 3543 350.45
365.99 1.000576 4.387091E-3 0.680727  3.339E-5 8.23139 3573 350.05
365.44 1.000576 4.244802E-3 0.680813  3.324E-5 8.23122 3602 349.65
364.90 1.000576 4.389733E-3 0.680894  3.328E-5 8.23022 3632 349.25
364.37 1.000576 4.273161E-3 0.680815  3.325E-5 8.22941 3662 348.85
363.80 1.000576 4.376780E-3 0.681187  3.331E-5 8.22950 3692 348.40
363.31 1.000576 4.545696E-3 0.681343  3.320E-5 8.22841 3722 348.00
362.79 1.000576 3.801494E-3 0.681311  3.326E-5 8.22810 3751 347.60
362.27 1.000576 4.297902E-3 0.681703  3.317E-5 8.22783 3781 347.25
361.77 1.000576 4.215117E-3 0.681618  3.331E-5 8.22694 3811 346.80
361.27 1.000576 4.237878E-3 0.681712  3.320E-5 8.22588 3841 346.35
360.77 1.000576 4.665150E-3 0.681722  3.323E-5 8.22531 3871 345.95
360.28 1.000576 4.386721E-3 0.681896  3.321E-5 8.22415 3900 345.50
359.75 1.000576 3.957866E-3 0.681789  3.330E-5 8.22232 3930 345.10
359.29 1.000576 4.017960E-3 0.682068  3.335E-5 8.22271 3960 344.70
358.81 1.000576 4.577209E-3 0.681885  3.326E-5 8.22336 3990 344.35
358.34 1.000576 4.215819E-3 0.682433  3.309E-5 8.22237 4020 343.95
357.87 1.000576 4.123560E-3 0.682413  3.311E-5 8.22159 4049 343.55
357.40 1.000576 4.145183E-3 0.682477  3.328E-5 8.22037 4079 343.15
356.94 1.000576 4.297616E-3 0.682767  3.314E-5 8.22119 4109 342.75
356.49 1.000576 4.159417E-3 0.682545  3.319E-5 8.22050 4139 342.40
356.03 1.000576 4.426385E-3 0.682811  3.315E-5 8.21962 4169 342.05
355.55 1.000576 4.210309E-3 0.683019  3.325E-5 8.21780 4198 341.65
355.14 1.000576 4.228771E-3 0.682903  3.317E-5 8.21782 4228 341.35
354.70 1.000576 4.188204E-3 0.683170  3.315E-5 8.21773 4258 341.00
354.26 1.000576 3.607680E-3 0.683151  3.321E-5 8.21606 4288 340.65
353.82 1.000576 4.178835E-3 0.683312  3.313E-5 8.21537 4318 340.25
353.39 1.000576 4.397526E-3 0.683287  3.317E-5 8.21501 4347 339.95
352.98 1.000576 3.977275E-3 0.683498  3.313E-5 8.21432 4377 339.60
352.55 1.000576 4.139995E-3 0.683723  3.312E-5 8.21447 4407 339.25
352.13 1.000576 4.507324E-3 0.683715  3.313E-5 8.21333 4437 338.90
351.71 1.000576 3.918491E-3 0.683704  3.304E-5 8.21293 4467 338.55
351.30 1.000576 4.187637E-3 0.683886  3.311E-5 8.21271 4496 338.20
350.90 1.000576 4.462732E-3 0.684105  3.322E-5 8.21103 4526 337.85
350.50 1.000576 4.037248E-3 0.684213  3.310E-5 8.21080 4556 337.55
350.10 1.000576 3.799476E-3 0.684064  3.317E-5 8.21129 4586 337.25
349.71 1.000576 4.036808E-3 0.684175  3.320E-5 8.20944 4616 336.90
349.33 1.000576 4.176727E-3 0.684426  3.327E-5 8.20994 4645 336.60
348.95 1.000576 4.255259E-3 0.684380  3.308E-5 8.20817 4675 336.30
348.57 1.000576 4.165780E-3 0.684508  3.312E-5 8.20852 4705 336.00
348.19 1.000576 4.118099E-3 0.684616  3.317E-5 8.20820 4735 335.65
347.81 1.000576 4.214033E-3 0.684487  3.311E-5 8.20727 4765 335.35
347.44 1.000576 4.242511E-3 0.684655  3.315E-5 8.20650 4794 335.00
347.07 1.000576 4.198939E-3 0.684670  3.309E-5 8.20644 4824 334.70
346.71 1.000576 4.001242E-3 0.684846  3.312E-5 8.20446 4854 334.40
346.35 1.000576 3.657697E-3 0.684982  3.305E-5 8.20570 4884 334.15
345.99 1.000576 4.179678E-3 0.685003  3.316E-5 8.20477 4914 333.85
345.63 1.000576 3.852168E-3 0.685083  3.316E-5 8.20479 4943 333.60
345.29 1.000576 3.775093E-3 0.685041  3.311E-5 8.20291 4973 333.30
344.93 1.000576 4.160483E-3 0.685186  3.310E-5 8.20383 5003 333.00
344.58 1.000576 3.680088E-3 0.685136  3.308E-5 8.20130 5033 332.70
344.24 1.000576 3.812075E-3 0.685361  3.304E-5 8.20203 5063 332.45
343.90 1.000576 4.185069E-3 0.685489  3.314E-5 8.20170 5092 332.20
343.57 1.000576 4.006753E-3 0.685421  3.309E-5 8.20240 5122 331.90
343.23 1.000576 4.041682E-3 0.685743  3.303E-5 8.20093 5152 331.60
342.90 1.000576 4.128311E-3 0.685601  3.310E-5 8.19992 5182 331.35
342.57 1.000576 4.089676E-3 0.685996  3.293E-5 8.20027 5212 331.10
342.22 1.000576 4.085100E-3 0.685843  3.308E-5 8.19902 5241 330.80
341.94 1.000576 3.496994E-3 0.685984  3.313E-5 8.19802 5271 330.60
341.57 1.000576 3.910953E-3 0.686193  3.308E-5 8.19880 5301 330.35
341.28 1.000576 3.822182E-3 0.685771  3.319E-5 8.19821 5331 330.10
340.96 1.000576 3.838211E-3 0.686530  3.304E-5 8.19701 5360 329.85
340.65 1.000576 3.711686E-3 0.686370  3.306E-5 8.19639 5390 329.60
340.35 1.000576 3.609798E-3 0.685977  3.306E-5 8.19589 5420 329.40
340.04 1.000576 3.988283E-3 0.686468  3.304E-5 8.19456 5450 329.15
339.73 1.000576 4.065916E-3 0.686405  3.305E-5 8.19518 5479 328.90
339.43 1.000576 4.041662E-3 0.686438  3.297E-5 8.19525 5509 328.65
339.14 1.000576 4.432195E-3 0.686317  3.303E-5 8.19493 5539 328.45
338.83 1.000576 4.143091E-3 0.686705  3.302E-5 8.19402 5569 328.25
338.54 1.000576 3.968082E-3 0.686838  3.305E-5 8.19390 5598 328.00
338.25 1.000576 3.844506E-3 0.686924  3.309E-5 8.19355 5628 327.80
337.97 1.000576 3.679943E-3 0.686869  3.304E-5 8.19286 5658 327.55
337.68 1.000576 3.752211E-3 0.687133  3.302E-5 8.19120 5687 327.35
337.40 1.000576 3.915164E-3 0.687122  3.296E-5 8.19221 5717 327.10
337.12 1.000576 4.036497E-3 0.687132  3.291E-5 8.19115 5747 326.95
336.85 1.000576 3.462858E-3 0.687328  3.303E-5 8.19100 5777 326.75
336.57 1.000576 3.874482E-3 0.687401  3.299E-5 8.19000 5806 326.50
336.29 1.000576 3.563442E-3 0.687123  3.299E-5 8.19094 5836 326.30
336.01 1.000576 3.910532E-3 0.687420  3.305E-5 8.18906 5866 326.10
335.74 1.000576 3.740588E-3 0.687260  3.307E-5 8.18927 5895 325.90
335.47 1.000576 3.954892E-3 0.687723  3.291E-5 8.18848 5925 325.70
335.20 1.000576 4.033592E-3 0.687626  3.301E-5 8.18815 5955 325.45
334.93 1.000576 4.219168E-3 0.688026  3.288E-5 8.18810 5984 325.25
334.67 1.000576 3.561463E-3 0.687986  3.299E-5 8.18680 6014 325.05
334.42 1.000576 4.073776E-3 0.687922  3.306E-5 8.18592 6044 324.85
334.16 1.000576 4.086049E-3 0.687874  3.315E-5 8.18540 6074 324.65
333.90 1.000576 3.665155E-3 0.687945  3.301E-5 8.18528 6103 324.50
333.65 1.000576 3.874979E-3 0.688217  3.304E-5 8.18506 6133 324.30
333.40 1.000576 3.606176E-3 0.688310  3.293E-5 8.18468 6163 324.10
333.14 1.000576 3.755529E-3 0.687966  3.293E-5 8.18545 6192 323.95
332.91 1.000576 3.896441E-3 0.688305  3.288E-5 8.18434 6222 323.70
332.66 1.000576 3.960029E-3 0.688187  3.295E-5 8.18469 6252 323.55
332.43 1.000576 3.773162E-3 0.688310  3.296E-5 8.18292 6281 323.35
332.18 1.000576 4.401182E-3 0.688551  3.298E-5 8.18384 6311 323.20
331.94 1.000576 4.206470E-3 0.688395  3.297E-5 8.18181 6341 323.05
331.70 1.000576 3.959745E-3 0.688628  3.291E-5 8.18237 6371 322.85
331.46 1.000576 3.718126E-3 0.688706  3.281E-5 8.18203 6400 322.65
331.23 1.000576 3.901104E-3 0.688466  3.285E-5 8.18132 6430 322.50
331.01 1.000576 3.891203E-3 0.688555  3.288E-5 8.17998 6460 322.35
330.78 1.000576 3.784107E-3 0.688886  3.295E-5 8.18091 6489 322.20
330.56 1.000576 3.850351E-3 0.688817  3.299E-5 8.18155 6519 322.05
330.33 1.000576 3.996493E-3 0.688785  3.299E-5 8.18017 6549 321.85
330.12 1.000576 3.941507E-3 0.688798  3.289E-5 8.18008 6578 321.70
329.89 1.000576 3.723214E-3 0.688933  3.291E-5 8.18010 6608 321.55
329.67 1.000576 3.742584E-3 0.688928  3.292E-5 8.17993 6638 321.35
329.45 1.000576 3.848180E-3 0.688963  3.285E-5 8.17781 6668 321.20
329.24 1.000576 3.584460E-3 0.689164  3.294E-5 8.17900 6697 321.05
329.03 1.000576 3.791214E-3 0.688865  3.298E-5 8.17810 6727 320.90
328.81 1.000576 3.860524E-3 0.688994  3.290E-5 8.17811 6757 320.75
328.60 1.000576 3.758258E-3 0.689178  3.303E-5 8.17632 6786 320.55
328.40 1.000576 4.062865E-3 0.689238  3.278E-5 8.17657 6816 320.40
328.19 1.000576 3.557091E-3 0.688735  3.294E-5 8.17703 6846 320.25
327.98 1.000576 3.739975E-3 0.689566  3.280E-5 8.17647 6875 320.15
327.77 1.000576 3.657192E-3 0.689332  3.293E-5 8.17505 6905 319.95
327.56 1.000576 4.040216E-3 0.689272  3.283E-5 8.17614 6935 319.80
327.36 1.000576 3.907989E-3 0.689487  3.299E-5 8.17368 6965 319.65
327.17 1.000576 4.146374E-3 0.689534  3.286E-5 8.17358 6994 319.55
326.96 1.000576 3.353583E-3 0.689640  3.282E-5 8.17284 7024 319.35
326.77 1.000576 3.736092E-3 0.689471  3.298E-5 8.17433 7054 319.25
326.57 1.000576 3.700719E-3 0.689919  3.299E-5 8.17259 7083 319.05
326.37 1.000576 3.452992E-3 0.689612  3.292E-5 8.17320 7113 318.95
326.18 1.000576 4.177380E-3 0.689996  3.288E-5 8.17283 7143 318.80
325.99 1.000576 3.928302E-3 0.689716  3.280E-5 8.17354 7172 318.65
325.79 1.000576 4.142303E-3 0.689626  3.305E-5 8.17135 7202 318.55
325.60 1.000576 3.663376E-3 0.689765  3.288E-5 8.17057 7232 318.35
325.42 1.000576 3.898554E-3 0.689828  3.288E-5 8.17177 7262 318.25
325.24 1.000576 3.869377E-3 0.689909  3.303E-5 8.17143 7291 318.05
325.05 1.000576 3.929979E-3 0.689729  3.276E-5 8.17061 7321 317.95
324.87 1.000576 3.549246E-3 0.689850  3.295E-5 8.16991 7351 317.85
324.69 1.000576 4.295541E-3 0.689793  3.277E-5 8.16978 7380 317.70
324.51 1.000576 3.740863E-3 0.690046  3.273E-5 8.16906 7410 317.55
324.34 1.000576 3.994349E-3 0.690135  3.292E-5 8.16987 7440 317.45
324.12 1.000576 3.916333E-3 0.690112  3.283E-5 8.16856 7469 317.30
323.95 1.000576 4.108127E-3 0.690188  3.290E-5 8.16887 7499 317.15
323.78 1.000576 3.893561E-3 0.690000  3.287E-5 8.16828 7529 317.05
323.61 1.000576 3.723073E-3 0.690421  3.290E-5 8.16719 7559 316.90
323.46 1.000576 4.022714E-3 0.690179  3.281E-5 8.16721 7588 316.75
323.30 1.000576 3.782857E-3 0.690147  3.280E-5 8.16749 7618 316.65
323.14 1.000576 4.104869E-3 0.690226  3.274E-5 8.16781 7648 316.50
322.98 1.000576 3.913389E-3 0.690354  3.279E-5 8.16670 7677 316.45
322.75 1.000576 3.736413E-3 0.690192  3.285E-5 8.16632 7707 316.25
322.64 1.000576 3.494214E-3 0.690531  3.276E-5 8.16583 7737 316.15
322.44 1.000576 3.676924E-3 0.690337  3.275E-5 8.16604 7766 316.05
322.31 1.000576 3.843433E-3 0.690388  3.282E-5 8.16561 7796 315.90
322.14 1.000576 3.769754E-3 0.690530  3.282E-5 8.16515 7826 315.75
321.98 1.000576 3.853523E-3 0.690587  3.284E-5 8.16560 7856 315.65
321.82 1.000576 4.061961E-3 0.690385  3.281E-5 8.16516 7885 315.55
321.66 1.000576 3.891305E-3 0.690652  3.292E-5 8.16569 7915 315.45
321.50 1.000576 4.093308E-3 0.690717  3.287E-5 8.16474 7945 315.35
321.34 1.000576 3.809530E-3 0.690689  3.285E-5 8.16259 7974 315.20
321.19 1.000576 3.816059E-3 0.690801  3.288E-5 8.16426 8004 315.05
321.04 1.000576 3.648993E-3 0.690967  3.294E-5 8.16300 8034 314.95
320.86 1.000576 3.935563E-3 0.690436  3.286E-5 8.16231 8063 314.85
320.74 1.000576 3.838042E-3 0.690372  3.289E-5 8.16080 8093 314.75
320.59 1.000576 3.777957E-3 0.691039  3.293E-5 8.16143 8123 314.65
320.41 1.000576 3.870054E-3 0.690857  3.289E-5 8.16220 8153 314.55
320.26 1.000576 3.675306E-3 0.691119  3.282E-5 8.16094 8182 314.40
320.11 1.000576 3.555832E-3 0.691091  3.271E-5 8.16076 8212 314.30
319.94 1.000576 3.898180E-3 0.691124  3.294E-5 8.16024 8242 314.15
319.86 1.000576 3.878612E-3 0.691043  3.282E-5 8.15961 8271 314.10
319.72 1.000576 3.717241E-3 0.691072  3.283E-5 8.16020 8301 313.95
319.57 1.000576 3.753032E-3 0.691163  3.287E-5 8.16012 8331 313.85
319.40 1.000576 3.841887E-3 0.691512  3.287E-5 8.15859 8360 313.75
319.26 1.000576 3.802688E-3 0.691444  3.291E-5 8.15948 8390 313.65
319.12 1.000576 4.073540E-3 0.691223  3.283E-5 8.15800 8420 313.55
318.98 1.000576 3.559772E-3 0.691268  3.277E-5 8.15986 8450 313.45
318.84 1.000576 4.073207E-3 0.691442  3.283E-5 8.15596 8479 313.35
318.68 1.000576 4.005695E-3 0.691202  3.271E-5 8.15870 8509 313.25
318.55 1.000576 3.842981E-3 0.691513  3.285E-5 8.15832 8539 313.15
318.41 1.000576 4.188466E-3 0.691631  3.268E-5 8.15779 8568 313.05
318.28 1.000576 3.816634E-3 0.691553  3.282E-5 8.15768 8598 312.95
318.15 1.000576 3.811898E-3 0.691440  3.288E-5 8.15658 8628 312.85
